Time	Channel A
(s)	(V)

0.00000000	1.60197800
0.00100000	1.61973900
0.00200000	1.61973900
0.00300000	1.60197800
0.00400000	1.61973900
0.00500000	1.61973900
0.00600000	1.61973900
0.00700000	1.60197800
0.00800000	1.61973900
0.00900000	1.61973900
0.01000000	1.61973900
0.01100000	1.60197800
0.01200000	1.61973900
0.01300000	1.61973900
0.01400000	1.61973900
0.01500000	1.61973900
0.01600000	1.61973900
0.01700000	1.61973900
0.01800000	1.61973900
0.01900000	1.63756200
0.02000000	1.61973900
0.02100000	1.61973900
0.02200000	1.61973900
0.02300000	1.61973900
0.02400000	1.61973900
0.02500000	1.63756200
0.02600000	1.61973900
0.02700000	1.61973900
0.02800000	1.63756200
0.02900000	1.61973900
0.03000000	1.61973900
0.03100000	1.63756200
0.03200000	1.61973900
0.03300000	1.61973900
0.03400000	1.61973900
0.03500000	1.61973900
0.03600000	1.61973900
0.03700000	1.61973900
0.03800000	1.61973900
0.03900000	1.61973900
0.04000000	1.60197800
0.04100000	1.58415500
0.04200000	1.61973900
0.04300000	1.61973900
0.04400000	1.60197800
0.04500000	1.61973900
0.04600000	1.61973900
0.04700000	1.58415500
0.04800000	1.60197800
0.04900000	1.61973900
0.05000000	1.60197800
0.05100000	1.60197800
0.05200000	1.60197800
0.05300000	1.58415500
0.05400000	1.60197800
0.05500000	1.61973900
0.05600000	1.60197800
0.05700000	1.60197800
0.05800000	1.60197800
0.05900000	1.58415500
0.06000000	1.60197800
0.06100000	1.61973900
0.06200000	1.61973900
0.06300000	1.61973900
0.06400000	1.61973900
0.06500000	1.63756200
0.06600000	1.63756200
0.06700000	1.60197800
0.06800000	1.61973900
0.06900000	1.61973900
0.07000000	1.60197800
0.07100000	1.63756200
0.07200000	1.61973900
0.07300000	1.61973900
0.07400000	1.61973900
0.07500000	1.63756200
0.07600000	1.61973900
0.07700000	1.61973900
0.07800000	1.61973900
0.07900000	1.61973900
0.08000000	1.61973900
0.08100000	1.61973900
0.08200000	1.60197800
0.08300000	1.63756200
0.08400000	1.63756200
0.08500000	1.61973900
0.08600000	1.61973900
0.08700000	1.63756200
0.08800000	1.61973900
0.08900000	1.61973900
0.09000000	1.61973900
0.09100000	1.61973900
0.09200000	1.61973900
0.09300000	1.60197800
0.09400000	1.63756200
0.09500000	1.63756200
0.09600000	1.60197800
0.09700000	1.63756200
0.09800000	1.63756200
0.09900000	1.61973900
0.10000000	1.61973900
0.10100000	1.63756200
0.10200000	1.61973900
0.10300000	1.61973900
0.10400000	1.63756200
0.10500000	1.61973900
0.10600001	1.61973900
0.10700001	1.61973900
0.10800001	1.61973900
0.10900001	1.61973900
0.11000001	1.63756200
0.11100001	1.61973900
0.11200001	1.61973900
0.11300001	1.61973900
0.11400001	1.61973900
0.11500001	1.61973900
0.11600001	1.63756200
0.11700001	1.61973900
0.11800001	1.61973900
0.11900001	1.61973900
0.12000001	1.61973900
0.12100001	1.61973900
0.12200001	1.61973900
0.12300001	1.58415500
0.12400001	1.61973900
0.12500001	1.60197800
0.12600001	1.60197800
0.12700001	1.60197800
0.12800001	1.61973900
0.12900001	1.56639300
0.13000001	1.61973900
0.13100001	1.60197800
0.13200001	1.58415500
0.13300001	1.60197800
0.13400001	1.61973900
0.13500001	1.58415500
0.13600001	1.60197800
0.13700001	1.61973900
0.13800001	1.58415500
0.13900001	1.61973900
0.14000001	1.60197800
0.14100001	1.60197800
0.14200001	1.61973900
0.14300001	1.61973900
0.14400001	1.58415500
0.14500001	1.60197800
0.14600001	1.63756200
0.14700001	1.61973900
0.14800001	1.61973900
0.14900001	1.61973900
0.15000001	1.61973900
0.15100001	1.61973900
0.15200001	1.61973900
0.15300001	1.61973900
0.15400001	1.61973900
0.15500001	1.58415500
0.15600001	1.61973900
0.15700001	1.61973900
0.15800001	1.60197800
0.15900001	1.61973900
0.16000001	1.61973900
0.16100001	1.60197800
0.16200001	1.61973900
0.16300001	1.61973900
0.16400001	1.58415500
0.16500001	1.61973900
0.16600001	1.61973900
0.16700001	1.60197800
0.16800001	1.61973900
0.16900001	1.60197800
0.17000001	1.58415500
0.17100001	1.60197800
0.17200001	1.61973900
0.17300001	1.60197800
0.17400001	1.61973900
0.17500001	1.61973900
0.17600001	1.60197800
0.17700001	1.61973900
0.17800001	1.60197800
0.17900001	1.61973900
0.18000001	1.63756200
0.18100001	1.61973900
0.18200001	1.61973900
0.18300001	1.63756200
0.18400001	1.61973900
0.18500001	1.63756200
0.18600001	1.61973900
0.18700001	1.60197800
0.18800001	1.63756200
0.18900001	1.61973900
0.19000001	1.60197800
0.19100001	1.61973900
0.19200001	1.61973900
0.19300001	1.60197800
0.19400001	1.61973900
0.19500001	1.61973900
0.19600001	1.60197800
0.19700001	1.61973900
0.19800001	1.61973900
0.19900001	1.60197800
0.20000001	1.61973900
0.20100001	1.61973900
0.20200001	1.61973900
0.20300001	1.61973900
0.20400001	1.61973900
0.20500001	1.61973900
0.20600001	1.61973900
0.20700001	1.61973900
0.20800001	1.61973900
0.20900001	1.61973900
0.21000001	1.61973900
0.21100001	1.63756200
0.21200001	1.63756200
0.21300001	1.61973900
0.21400001	1.63756200
0.21500001	1.63756200
0.21600001	1.61973900
0.21700001	1.63756200
0.21800001	1.63756200
0.21900001	1.61973900
0.22000001	1.63756200
0.22100001	1.63756200
0.22200001	1.61973900
0.22300001	1.63756200
0.22400001	1.63756200
0.22500001	1.61973900
0.22600001	1.63756200
0.22700001	1.61973900
0.22800001	1.61973900
0.22900001	1.63756200
0.23000001	1.63756200
0.23100001	1.61973900
0.23200001	1.61973900
0.23300001	1.61973900
0.23400001	1.61973900
0.23500001	1.61973900
0.23600001	1.61973900
0.23700001	1.58415500
0.23800001	1.60197800
0.23900001	1.61973900
0.24000001	1.60197800
0.24100001	1.60197800
0.24200001	1.60197800
0.24300001	1.60197800
0.24400001	1.60197800
0.24500001	1.61973900
0.24600001	1.58415500
0.24700001	1.61973900
0.24800001	1.61973900
0.24900001	1.58415500
0.25000001	1.60197800
0.25100001	1.61973900
0.25200001	1.56639300
0.25300001	1.60197800
0.25400001	1.61973900
0.25500001	1.60197800
0.25600001	1.60197800
0.25700001	1.61973900
0.25800001	1.61973900
0.25900001	1.61973900
0.26000001	1.61973900
0.26100001	1.61973900
0.26200001	1.61973900
0.26300001	1.60197800
0.26400001	1.61973900
0.26500001	1.61973900
0.26600001	1.60197800
0.26700001	1.61973900
0.26800001	1.61973900
0.26900001	1.60197800
0.27000001	1.61973900
0.27100001	1.61973900
0.27200001	1.60197800
0.27300001	1.61973900
0.27400001	1.61973900
0.27500001	1.60197800
0.27600001	1.61973900
0.27700001	1.61973900
0.27800001	1.60197800
0.27900001	1.61973900
0.28000001	1.61973900
0.28100001	1.60197800
0.28200001	1.61973900
0.28300001	1.61973900
0.28400001	1.60197800
0.28500001	1.61973900
0.28600001	1.61973900
0.28700001	1.63756200
0.28800001	1.61973900
0.28900001	1.60197800
0.29000001	1.61973900
0.29100001	1.63756200
0.29200001	1.63756200
0.29300001	1.63756200
0.29400001	1.63756200
0.29500001	1.61973900
0.29600001	1.63756200
0.29700001	1.63756200
0.29800001	1.61973900
0.29900001	1.63756200
0.30000001	1.63756200
0.30100001	1.60197800
0.30200001	1.63756200
0.30300001	1.63756200
0.30400001	1.61973900
0.30500001	1.63756200
0.30600001	1.63756200
0.30700001	1.61973900
0.30800001	1.63756200
0.30900001	1.63756200
0.31000001	1.61973900
0.31100001	1.63756200
0.31200001	1.63756200
0.31300001	1.61973900
0.31400001	1.61973900
0.31500001	1.61973900
0.31600002	1.61973900
0.31700002	1.61973900
0.31800002	1.61973900
0.31900002	1.60197800
0.32000002	1.63756200
0.32100002	1.61973900
0.32200002	1.60197800
0.32300002	1.61973900
0.32400002	1.61973900
0.32500002	1.61973900
0.32600002	1.61973900
0.32700002	1.61973900
0.32800002	1.60197800
0.32900002	1.61973900
0.33000002	1.61973900
0.33100002	1.60197800
0.33200002	1.61973900
0.33300002	1.61973900
0.33400002	1.60197800
0.33500002	1.61973900
0.33600002	1.61973900
0.33700002	1.61973900
0.33800002	1.61973900
0.33900002	1.61973900
0.34000002	1.61973900
0.34100002	1.61973900
0.34200002	1.61973900
0.34300002	1.61973900
0.34400002	1.61973900
0.34500002	1.61973900
0.34600002	1.61973900
0.34700002	1.61973900
0.34800002	1.61973900
0.34900002	1.63756200
0.35000002	1.61973900
0.35100002	1.60197800
0.35200002	1.61973900
0.35300002	1.61973900
0.35400002	1.61973900
0.35500002	1.61973900
0.35600002	1.61973900
0.35700002	1.61973900
0.35800002	1.61973900
0.35900002	1.61973900
0.36000002	1.60197800
0.36100002	1.61973900
0.36200002	1.61973900
0.36300002	1.60197800
0.36400002	1.61973900
0.36500002	1.61973900
0.36600002	1.60197800
0.36700002	1.63756200
0.36800002	1.61973900
0.36900002	1.60197800
0.37000002	1.61973900
0.37100002	1.60197800
0.37200002	1.60197800
0.37300002	1.61973900
0.37400002	1.63756200
0.37500002	1.60197800
0.37600002	1.61973900
0.37700002	1.60197800
0.37800002	1.58415500
0.37900002	1.60197800
0.38000002	1.60197800
0.38100002	1.58415500
0.38200002	1.60197800
0.38300002	1.61973900
0.38400002	1.60197800
0.38500002	1.61973900
0.38600002	1.61973900
0.38700002	1.63756200
0.38800002	1.63756200
0.38900002	1.61973900
0.39000002	1.63756200
0.39100002	1.63756200
0.39200002	1.61973900
0.39300002	1.63756200
0.39400002	1.63756200
0.39500002	1.61973900
0.39600002	1.63756200
0.39700002	1.63756200
0.39800002	1.61973900
0.39900002	1.61973900
0.40000002	1.63756200
0.40100002	1.61973900
0.40200002	1.61973900
0.40300002	1.63756200
0.40400002	1.61973900
0.40500002	1.61973900
0.40600002	1.61973900
0.40700002	1.60197800
0.40800002	1.61973900
0.40900002	1.61973900
0.41000002	1.60197800
0.41100002	1.61973900
0.41200002	1.61973900
0.41300002	1.61973900
0.41400002	1.61973900
0.41500002	1.61973900
0.41600002	1.61973900
0.41700002	1.61973900
0.41800002	1.61973900
0.41900002	1.60197800
0.42000002	1.61973900
0.42100002	1.61973900
0.42200002	1.60197800
0.42300002	1.61973900
0.42400002	1.61973900
0.42500002	1.60197800
0.42600002	1.61973900
0.42700002	1.61973900
0.42800002	1.61973900
0.42900002	1.61973900
0.43000002	1.61973900
0.43100002	1.56639300
0.43200002	1.60197800
0.43300002	1.61973900
0.43400002	1.58415500
0.43500002	1.60197800
0.43600002	1.60197800
0.43700002	1.60197800
0.43800002	1.61973900
0.43900002	1.60197800
0.44000002	1.61973900
0.44100002	1.61973900
0.44200002	1.61973900
0.44300002	1.61973900
0.44400002	1.63756200
0.44500002	1.61973900
0.44600002	1.63756200
0.44700002	1.61973900
0.44800002	1.61973900
0.44900002	1.63756200
0.45000002	1.63756200
0.45100002	1.61973900
0.45200002	1.63756200
0.45300002	1.63756200
0.45400002	1.61973900
0.45500002	1.61973900
0.45600002	1.61973900
0.45700002	1.61973900
0.45800002	1.61973900
0.45900002	1.63756200
0.46000002	1.61973900
0.46100002	1.61973900
0.46200002	1.61973900
0.46300002	1.61973900
0.46400002	1.61973900
0.46500002	1.61973900
0.46600002	1.60197800
0.46700002	1.61973900
0.46800002	1.61973900
0.46900002	1.61973900
0.47000002	1.61973900
0.47100002	1.61973900
0.47200002	1.58415500
0.47300002	1.60197800
0.47400002	1.60197800
0.47500002	1.58415500
0.47600002	1.60197800
0.47700002	1.61973900
0.47800002	1.60197800
0.47900002	1.61973900
0.48000002	1.61973900
0.48100002	1.60197800
0.48200002	1.61973900
0.48300002	1.58415500
0.48400002	1.61973900
0.48500002	1.60197800
0.48600002	1.61973900
0.48700002	1.61973900
0.48800002	1.63756200
0.48900002	1.61973900
0.49000002	1.61973900
0.49100002	1.61973900
0.49200002	1.61973900
0.49300002	1.63756200
0.49400002	1.61973900
0.49500002	1.60197800
0.49600002	1.61973900
0.49700002	1.60197800
0.49800002	1.60197800
0.49900002	1.61973900
0.50000002	1.60197800
0.50100002	1.60197800
0.50200002	1.61973900
0.50300002	1.60197800
0.50400002	1.60197800
0.50500002	1.60197800
0.50600002	1.60197800
0.50700002	1.60197800
0.50800002	1.60197800
0.50900002	1.60197800
0.51000002	1.60197800
0.51100002	1.61973900
0.51200002	1.61973900
0.51300002	1.63756200
0.51400002	1.61973900
0.51500002	1.61973900
0.51600002	1.61973900
0.51700002	1.63756200
0.51800002	1.61973900
0.51900002	1.61973900
0.52000002	1.63756200
0.52100002	1.60197800
0.52200002	1.61973900
0.52300002	1.61973900
0.52400002	1.61973900
0.52500002	1.63756200
0.52600002	1.63756200
0.52700003	1.61973900
0.52800003	1.61973900
0.52900003	1.61973900
0.53000003	1.60197800
0.53100003	1.63756200
0.53200003	1.63756200
0.53300003	1.60197800
0.53400003	1.61973900
0.53500003	1.63756200
0.53600003	1.60197800
0.53700003	1.63756200
0.53800003	1.63756200
0.53900003	1.61973900
0.54000003	1.61973900
0.54100003	1.61973900
0.54200003	1.61973900
0.54300003	1.63756200
0.54400003	1.61973900
0.54500003	1.61973900
0.54600003	1.63756200
0.54700003	1.61973900
0.54800003	1.61973900
0.54900003	1.63756200
0.55000003	1.61973900
0.55100003	1.61973900
0.55200003	1.63756200
0.55300003	1.61973900
0.55400003	1.61973900
0.55500003	1.63756200
0.55600003	1.60197800
0.55700003	1.61973900
0.55800003	1.61973900
0.55900003	1.61973900
0.56000003	1.61973900
0.56100003	1.61973900
0.56200003	1.60197800
0.56300003	1.61973900
0.56400003	1.61973900
0.56500003	1.61973900
0.56600003	1.63756200
0.56700003	1.61973900
0.56800003	1.61973900
0.56900003	1.63756200
0.57000003	1.61973900
0.57100003	1.61973900
0.57200003	1.63756200
0.57300003	1.61973900
0.57400003	1.60197800
0.57500003	1.61973900
0.57600003	1.61973900
0.57700003	1.60197800
0.57800003	1.61973900
0.57900003	1.61973900
0.58000003	1.60197800
0.58100003	1.61973900
0.58200003	1.60197800
0.58300003	1.63756200
0.58400003	1.63756200
0.58500003	1.63756200
0.58600003	1.63756200
0.58700003	1.63756200
0.58800003	1.61973900
0.58900003	1.61973900
0.59000003	1.63756200
0.59100003	1.60197800
0.59200003	1.63756200
0.59300003	1.63756200
0.59400003	1.60197800
0.59500003	1.61973900
0.59600003	1.61973900
0.59700003	1.61973900
0.59800003	1.61973900
0.59900003	1.61973900
0.60000003	1.63756200
0.60100003	1.63756200
0.60200003	1.61973900
0.60300003	1.61973900
0.60400003	1.63756200
0.60500003	1.60197800
0.60600003	1.61973900
0.60700003	1.63756200
0.60800003	1.61973900
0.60900003	1.63756200
0.61000003	1.63756200
0.61100003	1.61973900
0.61200003	1.63756200
0.61300003	1.63756200
0.61400003	1.60197800
0.61500003	1.63756200
0.61600003	1.63756200
0.61700003	1.61973900
0.61800003	1.63756200
0.61900003	1.63756200
0.62000003	1.61973900
0.62100003	1.63756200
0.62200003	1.63756200
0.62300003	1.61973900
0.62400003	1.61973900
0.62500003	1.63756200
0.62600003	1.61973900
0.62700003	1.61973900
0.62800003	1.63756200
0.62900003	1.63756200
0.63000003	1.63756200
0.63100003	1.61973900
0.63200003	1.61973900
0.63300003	1.61973900
0.63400003	1.61973900
0.63500003	1.61973900
0.63600003	1.61973900
0.63700003	1.61973900
0.63800003	1.61973900
0.63900003	1.63756200
0.64000003	1.60197800
0.64100003	1.61973900
0.64200003	1.63756200
0.64300003	1.61973900
0.64400003	1.61973900
0.64500003	1.63756200
0.64600003	1.61973900
0.64700003	1.63756200
0.64800003	1.63756200
0.64900003	1.61973900
0.65000003	1.61973900
0.65100003	1.65538500
0.65200003	1.61973900
0.65300003	1.61973900
0.65400003	1.61973900
0.65500003	1.60197800
0.65600003	1.61973900
0.65700003	1.61973900
0.65800003	1.60197800
0.65900003	1.61973900
0.66000003	1.61973900
0.66100003	1.60197800
0.66200003	1.61973900
0.66300003	1.61973900
0.66400003	1.61973900
0.66500003	1.61973900
0.66600003	1.61973900
0.66700003	1.60197800
0.66800003	1.61973900
0.66900003	1.61973900
0.67000003	1.60197800
0.67100003	1.61973900
0.67200003	1.61973900
0.67300003	1.61973900
0.67400003	1.61973900
0.67500003	1.63756200
0.67600003	1.60197800
0.67700003	1.61973900
0.67800003	1.61973900
0.67900003	1.60197800
0.68000003	1.61973900
0.68100003	1.61973900
0.68200003	1.61973900
0.68300003	1.61973900
0.68400003	1.61973900
0.68500003	1.61973900
0.68600003	1.61973900
0.68700003	1.61973900
0.68800003	1.61973900
0.68900003	1.63756200
0.69000003	1.61973900
0.69100003	1.61973900
0.69200003	1.61973900
0.69300003	1.61973900
0.69400003	1.61973900
0.69500003	1.63756200
0.69600003	1.61973900
0.69700003	1.63756200
0.69800003	1.61973900
0.69900003	1.61973900
0.70000003	1.61973900
0.70100003	1.63756200
0.70200003	1.60197800
0.70300003	1.61973900
0.70400003	1.61973900
0.70500003	1.60197800
0.70600003	1.63756200
0.70700003	1.63756200
0.70800003	1.61973900
0.70900003	1.61973900
0.71000003	1.61973900
0.71100003	1.61973900
0.71200003	1.61973900
0.71300003	1.61973900
0.71400003	1.63756200
0.71500003	1.63756200
0.71600003	1.61973900
0.71700003	1.61973900
0.71800003	1.63756200
0.71900003	1.61973900
0.72000003	1.61973900
0.72100003	1.63756200
0.72200003	1.61973900
0.72300003	1.63756200
0.72400003	1.61973900
0.72500003	1.60197800
0.72600003	1.61973900
0.72700003	1.63756200
0.72800003	1.61973900
0.72900003	1.61973900
0.73000003	1.63756200
0.73100003	1.61973900
0.73200003	1.61973900
0.73300003	1.63756200
0.73400003	1.61973900
0.73500003	1.61973900
0.73600003	1.61973900
0.73700004	1.61973900
0.73800004	1.60197800
0.73900004	1.61973900
0.74000004	1.61973900
0.74100004	1.63756200
0.74200004	1.61973900
0.74300004	1.60197800
0.74400004	1.61973900
0.74500004	1.61973900
0.74600004	1.61973900
0.74700004	1.63756200
0.74800004	1.61973900
0.74900004	1.60197800
0.75000004	1.61973900
0.75100004	1.61973900
0.75200004	1.60197800
0.75300004	1.61973900
0.75400004	1.61973900
0.75500004	1.58415500
0.75600004	1.60197800
0.75700004	1.60197800
0.75800004	1.60197800
0.75900004	1.61973900
0.76000004	1.61973900
0.76100004	1.58415500
0.76200004	1.60197800
0.76300004	1.61973900
0.76400004	1.60197800
0.76500004	1.61973900
0.76600004	1.61973900
0.76700004	1.61973900
0.76800004	1.61973900
0.76900004	1.61973900
0.77000004	1.61973900
0.77100004	1.63756200
0.77200004	1.60197800
0.77300004	1.61973900
0.77400004	1.61973900
0.77500004	1.61973900
0.77600004	1.61973900
0.77700004	1.61973900
0.77800004	1.61973900
0.77900004	1.61973900
0.78000004	1.61973900
0.78100004	1.60197800
0.78200004	1.61973900
0.78300004	1.61973900
0.78400004	1.60197800
0.78500004	1.61973900
0.78600004	1.61973900
0.78700004	1.60197800
0.78800004	1.61973900
0.78900004	1.61973900
0.79000004	1.60197800
0.79100004	1.61973900
0.79200004	1.63756200
0.79300004	1.61973900
0.79400004	1.61973900
0.79500004	1.61973900
0.79600004	1.60197800
0.79700004	1.63756200
0.79800004	1.60197800
0.79900004	1.61973900
0.80000004	1.63756200
0.80100004	1.60197800
0.80200004	1.61973900
0.80300004	1.63756200
0.80400004	1.61973900
0.80500004	1.63756200
0.80600004	1.61973900
0.80700004	1.60197800
0.80800004	1.61973900
0.80900004	1.61973900
0.81000004	1.60197800
0.81100004	1.61973900
0.81200004	1.61973900
0.81300004	1.58415500
0.81400004	1.61973900
0.81500004	1.61973900
0.81600004	1.60197800
0.81700004	1.60197800
0.81800004	1.61973900
0.81900004	1.58415500
0.82000004	1.60197800
0.82100004	1.61973900
0.82200004	1.61973900
0.82300004	1.61973900
0.82400004	1.61973900
0.82500004	1.60197800
0.82600004	1.63756200
0.82700004	1.60197800
0.82800004	1.63756200
0.82900004	1.61973900
0.83000004	1.61973900
0.83100004	1.61973900
0.83200004	1.61973900
0.83300004	1.61973900
0.83400004	1.63756200
0.83500004	1.61973900
0.83600004	1.60197800
0.83700004	1.63756200
0.83800004	1.63756200
0.83900004	1.60197800
0.84000004	1.63756200
0.84100004	1.61973900
0.84200004	1.61973900
0.84300004	1.61973900
0.84400004	1.61973900
0.84500004	1.61973900
0.84600004	1.63756200
0.84700004	1.63756200
0.84800004	1.61973900
0.84900004	1.61973900
0.85000004	1.61973900
0.85100004	1.61973900
0.85200004	1.61973900
0.85300004	1.61973900
0.85400004	1.58415500
0.85500004	1.60197800
0.85600004	1.61973900
0.85700004	1.60197800
0.85800004	1.60197800
0.85900004	1.61973900
0.86000004	1.58415500
0.86100004	1.63756200
0.86200004	1.61973900
0.86300004	1.63756200
0.86400004	1.63756200
0.86500004	1.61973900
0.86600004	1.63756200
0.86700004	1.63756200
0.86800004	1.61973900
0.86900004	1.63756200
0.87000004	1.63756200
0.87100004	1.61973900
0.87200004	1.63756200
0.87300004	1.63756200
0.87400004	1.60197800
0.87500004	1.63756200
0.87600004	1.63756200
0.87700004	1.61973900
0.87800004	1.61973900
0.87900004	1.61973900
0.88000004	1.61973900
0.88100004	1.61973900
0.88200004	1.61973900
0.88300004	1.60197800
0.88400004	1.61973900
0.88500004	1.61973900
0.88600004	1.60197800
0.88700004	1.61973900
0.88800004	1.61973900
0.88900004	1.60197800
0.89000004	1.61973900
0.89100004	1.61973900
0.89200004	1.60197800
0.89300004	1.61973900
0.89400004	1.61973900
0.89500004	1.60197800
0.89600004	1.61973900
0.89700004	1.63756200
0.89800004	1.60197800
0.89900004	1.63756200
0.90000004	1.61973900
0.90100004	1.60197800
0.90200004	1.61973900
0.90300004	1.61973900
0.90400004	1.60197800
0.90500004	1.61973900
0.90600004	1.61973900
0.90700004	1.61973900
